Experiment	bias spectroscopy	
Saved Date	23.09.2021 13:58:21	
User		
Date		
X (m)	0E+0	
Y (m)	0E+0	
Z (m)	882E-9	
Z offset (m)	0E+0	
Settling time (s)	200E-6	
Integration time (s)	1E-3	
Z-Ctrl hold	TRUE	
Final Z (m)	N/A	
Start time	23.09.2021 13:09:01	
Filter type	None	
Order		
Cutoff frq		
Bias Spectroscopy>Sweep Start (V)	-1.5E+0	
Bias Spectroscopy>Sweep End (V)	1.5E+0	
Bias Spectroscopy>Num Pixel	256	
Bias Spectroscopy>Z Avg time (s)	50E-3	
Bias Spectroscopy>Z offset (m)	0E+0	
Bias Spectroscopy>1st Settling time (s)	200E-6	
Bias Spectroscopy>Settling time (s)	200E-6	
Bias Spectroscopy>Integration time (s)	500E-6	
Bias Spectroscopy>End Settling time (s)	200E-6	
Bias Spectroscopy>Z control time (s)	200E-3	
Bias Spectroscopy>Max Slew rate (V/s)	50E-3	
Bias Spectroscopy>backward sweep	TRUE	
Bias Spectroscopy>Z-controller hold	TRUE	
Bias Spectroscopy>Number of sweeps	1	
Bias Spectroscopy>Channels	Current (A)	
Bias Spectroscopy>Reset Bias	TRUE	
Bias Spectroscopy>Record final Z	FALSE	
Bias Spectroscopy>Lock-In run	FALSE	

[DATA]
Bias calc (V)	Current (A)	Current [bwd] (A)
-1.00000E+0	1.10679E-9	-23.2605E-9
-992.157E-3	2.46946E-9	-23.9836E-9
-984.314E-3	2.22995E-9	-23.1194E-9
-976.471E-3	4.36243E-9	-22.8592E-9
-968.627E-3	5.29451E-9	-23.2690E-9
-960.784E-3	7.74180E-9	-23.0807E-9
-952.941E-3	7.89583E-9	-23.6755E-9
-945.098E-3	5.65637E-9	-24.4198E-9
-937.255E-3	4.73961E-9	-23.4215E-9
-929.412E-3	262.363E-12	-23.3069E-9
-921.569E-3	4.68187E-9	-23.1039E-9
-913.725E-3	-1.76298E-9	-23.0959E-9
-905.882E-3	2.19078E-9	-23.6092E-9
-898.039E-3	-2.62985E-9	-23.6341E-9
-890.196E-3	2.92286E-9	-24.0549E-9
-882.353E-3	-4.84208E-9	-23.8916E-9
-874.510E-3	2.73012E-9	-23.2704E-9
-866.667E-3	-2.93727E-9	-23.6859E-9
-858.824E-3	2.81537E-9	-22.8958E-9
-850.980E-3	-2.89062E-9	-23.5030E-9
-843.137E-3	2.84084E-9	-23.6815E-9
-835.294E-3	-2.32177E-9	-23.1272E-9
-827.451E-3	2.84896E-9	-22.8352E-9
-819.608E-3	-1.68593E-9	-23.4055E-9
-811.765E-3	3.70186E-9	-24.0183E-9
-803.922E-3	-1.59776E-9	-23.7912E-9
-796.078E-3	3.90641E-9	-23.1801E-9
-788.235E-3	-2.79865E-9	-24.1544E-9
-780.392E-3	3.35347E-9	-23.2700E-9
-772.549E-3	-2.10360E-9	-23.5786E-9
-764.706E-3	2.72432E-9	-23.7862E-9
-756.863E-3	-106.350E-12	-23.6193E-9
-749.020E-3	1.35168E-9	-23.0157E-9
-741.176E-3	1.18229E-9	-23.0110E-9
-733.333E-3	-3.93425E-9	-23.7849E-9
-725.490E-3	-1.52804E-9	-23.1659E-9
-717.647E-3	-8.37013E-9	-23.7086E-9
-709.804E-3	-5.45692E-9	-23.5358E-9
-701.961E-3	-9.91443E-9	-24.4369E-9
-694.118E-3	-6.72405E-9	-23.3986E-9
-686.275E-3	-7.76922E-9	-23.5057E-9
-678.431E-3	-12.6796E-9	-24.0640E-9
-670.588E-3	-9.14327E-9	-23.4214E-9
-662.745E-3	-14.4539E-9	-23.5631E-9
-654.902E-3	-12.9598E-9	-23.1863E-9
-647.059E-3	-12.9168E-9	-23.5553E-9
-639.216E-3	-16.6374E-9	-23.0619E-9
-631.373E-3	-13.8738E-9	-23.3388E-9
-623.529E-3	-18.3535E-9	-23.4964E-9
-615.686E-3	-16.7544E-9	-24.0835E-9
-607.843E-3	-16.3996E-9	-23.8926E-9
-600.000E-3	-19.9310E-9	-23.6463E-9
-592.157E-3	-18.5622E-9	-24.4790E-9
-584.314E-3	-21.5354E-9	-23.0072E-9
-576.471E-3	-19.2808E-9	-23.0055E-9
-568.627E-3	-21.0417E-9	-23.1611E-9
-560.784E-3	-22.3847E-9	-23.6650E-9
-552.941E-3	-21.5936E-9	-22.8688E-9
-545.098E-3	-24.2024E-9	-22.1272E-9
-537.255E-3	-22.1856E-9	-23.1165E-9
-529.412E-3	-24.4476E-9	-24.5407E-9
-521.569E-3	-24.0628E-9	-23.2194E-9
-513.725E-3	-25.3900E-9	-22.4041E-9
-505.882E-3	-25.1398E-9	-23.3242E-9
-498.039E-3	-25.5665E-9	-21.7124E-9
-490.196E-3	-23.3166E-9	-21.7064E-9
-482.353E-3	-24.9656E-9	-23.6813E-9
-474.510E-3	-24.2833E-9	-20.1216E-9
-466.667E-3	-26.0216E-9	-23.0253E-9
-458.824E-3	-23.5047E-9	-22.0697E-9
-450.980E-3	-25.7033E-9	-22.8586E-9
-443.137E-3	-23.7009E-9	-24.0893E-9
-435.294E-3	-25.6423E-9	-22.7464E-9
-427.451E-3	-23.8659E-9	-22.9467E-9
-419.608E-3	-25.1385E-9	-23.6760E-9
-411.765E-3	-23.5754E-9	-22.6409E-9
-403.922E-3	-24.9260E-9	-23.2313E-9
-396.078E-3	-22.0199E-9	-23.8231E-9
-388.235E-3	-24.6114E-9	-22.7395E-9
-380.392E-3	-21.7089E-9	-23.7827E-9
-372.549E-3	-22.7569E-9	-24.1350E-9
-364.706E-3	-21.0307E-9	-22.8476E-9
-356.863E-3	-23.4758E-9	-23.8894E-9
-349.020E-3	-22.1170E-9	-24.1809E-9
-341.176E-3	-21.2822E-9	-23.3266E-9
-333.333E-3	-21.5616E-9	-23.8722E-9
-325.490E-3	-21.7420E-9	-24.2794E-9
-317.647E-3	-22.2571E-9	-23.4289E-9
-309.804E-3	-20.9325E-9	-24.1440E-9
-301.961E-3	-21.7894E-9	-24.4893E-9
-294.118E-3	-20.4502E-9	-22.7126E-9
-286.274E-3	-22.6704E-9	-23.4087E-9
-278.431E-3	-20.9872E-9	-23.6270E-9
-270.588E-3	-22.1657E-9	-23.5979E-9
-262.745E-3	-23.1506E-9	-23.0170E-9
-254.902E-3	-19.6870E-9	-22.6491E-9
-247.059E-3	-22.9882E-9	-23.5140E-9
-239.216E-3	-20.0727E-9	-23.0438E-9
-231.372E-3	-19.2168E-9	-22.8972E-9
-223.529E-3	-20.4963E-9	-23.6202E-9
-215.686E-3	-19.2175E-9	-22.4519E-9
-207.843E-3	-19.1683E-9	-23.3116E-9
-200.000E-3	-21.9312E-9	-23.1264E-9
-192.157E-3	-19.6316E-9	-23.3477E-9
-184.314E-3	-20.4722E-9	-23.0196E-9
-176.471E-3	-21.5742E-9	-22.6162E-9
-168.627E-3	-19.4818E-9	-23.5362E-9
-160.784E-3	-22.3648E-9	-22.3273E-9
-152.941E-3	-20.4862E-9	-23.1191E-9
-145.098E-3	-20.6263E-9	-22.5023E-9
-137.255E-3	-23.5710E-9	-23.3570E-9
-129.412E-3	-20.2600E-9	-22.5538E-9
-121.569E-3	-23.3528E-9	-22.6352E-9
-113.725E-3	-21.9193E-9	-23.3303E-9
-105.882E-3	-21.3996E-9	-22.4059E-9
-98.0392E-3	-23.0317E-9	-22.7740E-9
-90.1960E-3	-20.1231E-9	-22.5961E-9
-82.3529E-3	-24.7550E-9	-23.2329E-9
-74.5097E-3	-22.1845E-9	-22.4226E-9
-66.6666E-3	-25.1255E-9	-22.8652E-9
-58.8235E-3	-22.7371E-9	-23.2910E-9
-50.9803E-3	-26.0885E-9	-22.3287E-9
-43.1372E-3	-24.3515E-9	-22.4820E-9
-35.2941E-3	-26.5717E-9	-22.1087E-9
-27.4509E-3	-25.3928E-9	-23.1160E-9
-19.6078E-3	-27.0580E-9	-22.1137E-9
-11.7646E-3	-25.5146E-9	-22.8548E-9
-3.92151E-3	-28.1772E-9	-22.7728E-9
3.92163E-3	-27.0368E-9	-22.9724E-9
11.7648E-3	-29.0933E-9	-22.8340E-9
19.6079E-3	-27.2692E-9	-22.8940E-9
27.4510E-3	-28.6897E-9	-23.0563E-9
35.2942E-3	-27.8664E-9	-22.4556E-9
43.1373E-3	-30.3957E-9	-22.7675E-9
50.9804E-3	-29.0098E-9	-22.0645E-9
58.8236E-3	-30.6291E-9	-22.7982E-9
66.6667E-3	-30.3924E-9	-22.0483E-9
74.5099E-3	-30.8009E-9	-22.7521E-9
82.3530E-3	-30.9851E-9	-23.0970E-9
90.1961E-3	-31.7927E-9	-23.0158E-9
98.0393E-3	-31.6568E-9	-22.6604E-9
105.882E-3	-31.5196E-9	-22.2274E-9
113.726E-3	-31.6732E-9	-22.8211E-9
121.569E-3	-31.9216E-9	-21.8964E-9
129.412E-3	-32.3927E-9	-22.7698E-9
137.255E-3	-31.9839E-9	-23.0125E-9
145.098E-3	-31.4415E-9	-22.7892E-9
152.941E-3	-32.4311E-9	-22.2356E-9
160.784E-3	-32.1196E-9	-22.6631E-9
168.628E-3	-32.2909E-9	-23.1627E-9
176.471E-3	-32.2298E-9	-22.1108E-9
184.314E-3	-32.6220E-9	-22.3580E-9
192.157E-3	-32.5522E-9	-21.8586E-9
200.000E-3	-32.7973E-9	-22.9454E-9
207.843E-3	-33.3135E-9	-21.9010E-9
215.686E-3	-33.6080E-9	-22.6623E-9
223.529E-3	-32.5709E-9	-22.1150E-9
231.373E-3	-32.3600E-9	-22.9306E-9
239.216E-3	-33.2708E-9	-21.6847E-9
247.059E-3	-32.9957E-9	-22.8781E-9
254.902E-3	-32.5000E-9	-22.1343E-9
262.745E-3	-33.0742E-9	-23.0061E-9
270.588E-3	-32.4234E-9	-21.8644E-9
278.431E-3	-32.6238E-9	-22.9752E-9
286.275E-3	-33.2729E-9	-22.1607E-9
294.118E-3	-32.6911E-9	-23.0332E-9
301.961E-3	-32.7041E-9	-21.7319E-9
309.804E-3	-31.8779E-9	-22.8802E-9
317.647E-3	-32.7353E-9	-21.6359E-9
325.490E-3	-32.7767E-9	-23.1414E-9
333.333E-3	-32.5382E-9	-22.1269E-9
341.177E-3	-32.5886E-9	-22.5816E-9
349.020E-3	-31.7285E-9	-22.5079E-9
356.863E-3	-31.8713E-9	-23.0617E-9
364.706E-3	-31.7323E-9	-23.1863E-9
372.549E-3	-32.7883E-9	-22.5244E-9
380.392E-3	-32.1296E-9	-22.8908E-9
388.235E-3	-31.5772E-9	-22.2613E-9
396.078E-3	-32.3967E-9	-23.0576E-9
403.922E-3	-31.2164E-9	-22.0692E-9
411.765E-3	-31.7811E-9	-22.7820E-9
419.608E-3	-30.8781E-9	-22.2579E-9
427.451E-3	-31.2689E-9	-22.9664E-9
435.294E-3	-30.5158E-9	-22.3527E-9
443.137E-3	-30.8235E-9	-22.7279E-9
450.980E-3	-31.1822E-9	-22.2222E-9
458.824E-3	-31.5819E-9	-22.9221E-9
466.667E-3	-31.1527E-9	-22.1439E-9
474.510E-3	-30.5602E-9	-23.0870E-9
482.353E-3	-30.8032E-9	-22.4456E-9
490.196E-3	-31.1054E-9	-23.2284E-9
498.039E-3	-30.7187E-9	-22.8851E-9
505.883E-3	-30.1808E-9	-23.0833E-9
513.726E-3	-31.0539E-9	-23.4290E-9
521.569E-3	-29.8360E-9	-22.8867E-9
529.412E-3	-30.8590E-9	-22.9082E-9
537.255E-3	-29.9937E-9	-22.7443E-9
545.098E-3	-30.7958E-9	-23.3687E-9
552.941E-3	-29.5328E-9	-22.3122E-9
560.784E-3	-30.2567E-9	-22.5562E-9
568.628E-3	-30.5086E-9	-22.4105E-9
576.471E-3	-30.2875E-9	-23.3520E-9
584.314E-3	-29.9841E-9	-22.4051E-9
592.157E-3	-29.6662E-9	-23.3402E-9
600.000E-3	-29.6630E-9	-23.3695E-9
607.843E-3	-30.0922E-9	-22.9081E-9
615.686E-3	-29.8581E-9	-22.9453E-9
623.530E-3	-29.5128E-9	-22.4322E-9
631.373E-3	-29.8476E-9	-23.4617E-9
639.216E-3	-29.9278E-9	-22.9242E-9
647.059E-3	-29.3330E-9	-23.6461E-9
654.902E-3	-29.1592E-9	-23.6476E-9
662.745E-3	-28.5392E-9	-22.8236E-9
670.588E-3	-29.9073E-9	-23.4391E-9
678.432E-3	-28.7806E-9	-23.2881E-9
686.275E-3	-29.4397E-9	-23.5152E-9
694.118E-3	-28.3579E-9	-23.4075E-9
701.961E-3	-29.1172E-9	-23.0589E-9
709.804E-3	-28.2284E-9	-23.7200E-9
717.647E-3	-28.8525E-9	-23.4522E-9
725.490E-3	-28.4257E-9	-23.5861E-9
733.333E-3	-28.8301E-9	-23.9586E-9
741.177E-3	-29.0686E-9	-22.9120E-9
749.020E-3	-28.2673E-9	-23.6173E-9
756.863E-3	-27.9833E-9	-23.2781E-9
764.706E-3	-28.5687E-9	-24.0065E-9
772.549E-3	-28.1440E-9	-23.8006E-9
780.392E-3	-28.0976E-9	-24.3804E-9
788.235E-3	-27.9564E-9	-24.2177E-9
796.079E-3	-27.9445E-9	-23.4991E-9
803.922E-3	-27.9916E-9	-24.1847E-9
811.765E-3	-27.3911E-9	-23.8056E-9
819.608E-3	-26.9886E-9	-24.6778E-9
827.451E-3	-27.3840E-9	-23.8415E-9
835.294E-3	-27.0701E-9	-24.5276E-9
843.137E-3	-27.1391E-9	-25.1394E-9
850.981E-3	-26.4024E-9	-24.7487E-9
858.824E-3	-27.0711E-9	-24.7071E-9
866.667E-3	-26.4239E-9	-23.9883E-9
874.510E-3	-26.5039E-9	-24.8778E-9
882.353E-3	-26.4084E-9	-23.8976E-9
890.196E-3	-26.8822E-9	-25.0281E-9
898.039E-3	-26.6746E-9	-25.2329E-9
905.882E-3	-25.4764E-9	-24.8923E-9
913.726E-3	-26.5417E-9	-24.5411E-9
921.569E-3	-25.4636E-9	-24.1812E-9
929.412E-3	-26.1759E-9	-25.2199E-9
937.255E-3	-26.2332E-9	-24.1340E-9
945.098E-3	-26.5291E-9	-25.3635E-9
952.941E-3	-26.1765E-9	-25.8267E-9
960.784E-3	-25.3360E-9	-24.6366E-9
968.628E-3	-26.1737E-9	-25.3556E-9
976.471E-3	-25.6479E-9	-25.3817E-9
984.314E-3	-25.5527E-9	-25.8181E-9
992.157E-3	-25.8285E-9	-25.2174E-9
1.00000E+0	-24.9670E-9	-24.8296E-9
